time	pitch	intensity	formant1	formant2	formant3	formant4
0	--undefined--	--undefined--	--undefined--	--undefined--	--undefined--	--undefined--
0.010	--undefined--	--undefined--	--undefined--	--undefined--	--undefined--	--undefined--
0.020	469.31	--undefined--	--undefined--	--undefined--	--undefined--	--undefined--
0.030	469.10	49.28	1791.92	2708.22	3052.38	4282.12
0.040	468.94	49.30	1794.72	2714.20	3067.51	4406.80
0.050	400.88	47.71	1796.13	2722.17	3201.97	4411.34
0.060	399.96	46.14	1720.34	2740.28	3202.63	4412.80
0.070	400.10	43.79	1185.54	2746.93	3200.48	4519.89
0.080	--undefined--	39.53	1342.79	2435.50	3127.70	4149.70
0.090	--undefined--	39.33	1399.30	1813.56	2768.17	3733.67
0.100	199.80	41.91	1389.13	1804.57	2818.00	3238.92
0.110	199.65	42.22	1319.27	2662.80	3122.51	4364.12
0.120	207.07	41.93	340.94	2136.42	3112.46	4287.67
0.130	206.99	40.57	437.34	2745.84	3212.24	4388.00
0.140	--undefined--	38.02	442.82	2731.00	3569.75	4507.89
0.150	--undefined--	36.79	1590.91	3061.97	3590.40	4258.96
0.160	--undefined--	39.01	1227.75	2765.79	3196.12	3688.44
0.170	--undefined--	41.03	1196.48	2830.71	3198.74	4224.03
0.180	--undefined--	40.44	1197.49	2846.03	3200.96	4357.93
0.190	--undefined--	39.34	1338.95	2854.92	3201.47	4370.32
0.200	--undefined--	40.14	1393.09	3042.77	3202.28	4807.16
0.210	444.46	41.71	1276.47	2769.77	3202.04	5220.38
0.220	444.23	41.14	2020.44	3030.97	4231.12	5118.83
0.230	--undefined--	38.87	2711.41	2947.53	4231.07	--undefined--
0.240	--undefined--	36.98	2441.18	2721.68	3193.60	4677.68
0.250	--undefined--	38.88	2644.75	2732.81	3767.52	4563.81
0.260	444.55	43.03	2700.20	2742.35	4394.83	4563.93
0.270	444.71	44.63	2693.55	2745.35	4390.91	4545.07
0.280	398.92	43.10	1067.61	2718.03	3104.30	4404.36
0.290	398.95	42.34	1197.67	2722.90	3201.78	4370.45
0.300	399.84	41.78	1196.71	2719.13	3198.12	4362.01
0.310	--undefined--	39.20	1189.49	2771.19	3207.16	4424.11
0.320	--undefined--	38.18	655.38	2003.76	3250.74	4023.41
0.330	--undefined--	38.31	446.71	1414.68	3098.29	3366.20
0.340	--undefined--	38.79	221.99	1405.12	2734.86	3200.96
0.350	150.73	43.07	464.61	2130.47	2830.66	3162.91
0.360	150.82	46.26	440.83	2694.09	2752.78	4344.24
0.370	150.96	46.09	1971.25	2708.48	3897.58	4477.33
0.380	151.07	43.06	1434.72	2607.10	3044.67	4403.48
0.390	--undefined--	39.91	1292.47	1904.63	3194.28	4330.18
0.400	--undefined--	39.69	1298.93	2443.34	3188.56	3604.52
0.410	449.45	42.44	1453.92	2715.78	3083.47	3660.56
0.420	449.60	42.32	2689.99	2736.49	3277.94	3843.20
0.430	--undefined--	38.29	2679.75	2714.19	3089.89	3627.63
0.440	--undefined--	37.34	2764.05	2789.24	3188.20	3630.50
0.450	--undefined--	40.26	2358.88	3172.46	3212.22	4360.66
0.460	469.19	43.26	3172.68	3219.61	4358.91	--undefined--
0.470	469.61	44.51	2044.20	3194.13	3578.94	4359.82
0.480	469.73	43.88	1459.34	3168.23	3223.45	4381.09
0.490	399.25	44.91	1959.20	3165.91	3217.27	4437.61
0.500	399.85	46.56	1922.96	2948.18	3197.44	4439.81
0.510	399.94	45.41	1290.38	2643.21	3151.49	4317.40
0.520	382.11	42.58	1311.76	1967.66	2723.41	3785.10
0.530	382.96	42.54	1548.14	2178.86	3265.49	4453.93
0.540	382.94	44.52	1800.02	2757.49	4511.49	4555.36
0.550	383.20	46.72	1807.61	2732.92	4221.53	4548.02
0.560	383.30	47.69	1849.80	2904.07	3448.53	4549.13
0.570	421.65	45.67	858.63	2205.88	3451.38	4498.69
0.580	444.85	40.90	970.33	2154.61	3199.77	4483.06
0.590	444.07	40.19	1943.50	2802.93	3346.57	4871.28
0.600	443.96	43.16	2716.03	3187.67	4560.42	4872.24
0.610	443.96	43.70	428.36	2735.20	3197.71	4550.56
0.620	--undefined--	40.79	444.30	2865.77	3199.28	4569.30
0.630	--undefined--	36.68	442.76	2159.51	2901.93	4389.11
0.640	--undefined--	37.85	372.57	2142.56	2198.72	4516.24
0.650	--undefined--	39.13	2141.96	2186.10	4556.12	4725.62
0.660	--undefined--	38.64	609.93	2249.07	3222.63	4558.42
0.670	--undefined--	38.35	1159.09	1859.56	3556.76	4353.72
0.680	400.12	41.23	954.66	1387.12	3199.09	4192.62
0.690	400.05	41.82	1172.25	3007.44	4095.26	4370.84
0.700	--undefined--	39.59	1243.63	3196.93	3692.53	4386.05
0.710	531.89	42.56	3174.23	3226.72	4550.59	--undefined--
0.720	529.78	44.83	3172.89	3224.10	4477.87	4559.79
0.730	527.11	42.61	2773.79	3177.51	3230.13	4558.57
0.740	--undefined--	37.49	2552.21	2752.88	3200.75	4555.50
0.750	--undefined--	36.69	2420.91	2704.38	3176.71	4557.24
0.760	--undefined--	40.15	2459.29	2742.20	3200.19	4554.57
0.770	--undefined--	41.31	2705.87	3111.83	3204.19	--undefined--
0.780	400.96	42.62	1365.75	2726.72	3196.35	4067.15
0.790	401.62	45.24	1399.13	2804.37	3188.46	4556.01
0.800	401.75	46.77	1403.39	3082.08	3188.69	4544.77
0.810	383.09	46.08	2715.21	3134.39	4475.82	4741.83
0.820	228.19	44.87	2698.12	2769.78	4318.77	4610.86
0.830	227.82	44.74	2700.92	2756.08	3386.51	4257.50
0.840	227.97	43.23	2730.89	3004.98	3606.50	4460.68
0.850	227.87	40.91	2721.87	3032.26	3651.28	4555.41
0.860	228.02	41.41	831.94	2726.83	3729.32	4553.28
0.870	227.77	43.43	1275.41	2129.62	3215.23	4373.51
0.880	210.52	44.96	1275.59	2350.43	3027.25	4139.08
0.890	210.68	44.37	1277.29	1469.35	2718.36	3149.86
0.900	--undefined--	41.32	1279.49	1766.85	2719.41	3835.57
0.910	241.75	41.83	1326.81	2837.24	3068.71	4628.01
0.920	241.81	43.88	1713.83	3196.50	4574.65	5333.79
0.930	241.85	43.05	1280.97	3073.10	3617.17	4710.52
0.940	--undefined--	39.62	1278.90	2719.62	3199.69	4727.47
0.950	--undefined--	36.89	1278.34	2717.21	3162.63	4551.92
0.960	--undefined--	36.90	1229.56	2759.28	3040.90	4393.92
0.970	--undefined--	39.62	2711.53	3172.74	4293.17	4548.24
0.980	227.69	43.33	2710.05	2896.03	3348.99	4553.89
0.990	227.47	44.05	2710.41	2852.75	3403.14	4607.74
1.000	169.18	42.67	2708.30	3173.89	4030.55	4839.98
1.010	168.43	41.24	2709.92	3196.62	4533.15	4872.16
1.020	--undefined--	37.98	2730.47	3199.75	4544.71	4872.46
1.030	--undefined--	34.34	2717.58	3145.99	4563.93	4701.84
1.040	--undefined--	35.65	2715.64	3182.40	4548.12	4648.27
1.050	--undefined--	40.24	2929.19	3192.54	4562.98	4628.57
1.060	400.78	44.34	3175.91	3209.97	4373.23	4725.34
1.070	399.04	45.82	3181.31	3211.18	4356.55	4726.13
1.080	397.77	44.39	3190.75	3231.12	4356.79	4658.02
1.090	--undefined--	40.47	2356.57	3193.10	4347.53	4531.73
1.100	--undefined--	37.17	1797.17	2993.62	3723.27	4537.55
1.110	--undefined--	36.45	1795.96	2309.33	3185.36	4557.07
1.120	--undefined--	36.07	1796.50	2638.30	3136.50	4559.86
1.130	--undefined--	36.22	1796.87	2698.34	3201.81	4425.00
1.140	--undefined--	39.97	1815.04	2984.83	3221.63	4438.33
1.150	469.25	43.19	1792.23	2874.06	4319.37	4653.06
1.160	444.30	43.88	1796.58	2221.37	4469.45	4877.19
1.170	444.23	43.45	1762.54	1826.53	3582.90	4853.91
1.180	444.21	41.34	1254.49	2155.20	3171.39	4871.91
1.190	--undefined--	40.08	1828.64	2894.37	3201.82	4872.83
1.200	--undefined--	40.30	1691.43	3034.44	3204.50	5223.29
1.210	--undefined--	38.18	2714.14	3188.01	4811.67	--undefined--
1.220	--undefined--	37.03	2710.09	3013.92	4226.02	4831.60
1.230	--undefined--	40.10	2711.59	3173.01	3666.92	4821.97
1.240	399.93	42.75	2713.39	3196.01	3547.15	4427.76
1.250	400.67	42.30	2739.60	3195.85	3704.87	4370.55
1.260	--undefined--	40.62	2716.00	3197.24	4396.92	4540.25
1.270	--undefined--	40.74	2717.93	3166.63	4554.62	4812.66
1.280	--undefined--	40.23	3129.79	3197.16	4522.72	--undefined--
1.290	--undefined--	38.71	3175.09	3221.43	4404.68	--undefined--
1.300	--undefined--	37.97	803.98	3193.00	3667.94	4399.92
1.310	--undefined--	40.97	904.40	1318.56	3350.06	4399.21
1.320	257.77	43.06	1282.57	1404.62	3433.84	4485.94
1.330	228.32	43.01	1321.29	2163.03	3179.11	4557.05
1.340	228.48	41.36	1393.02	2673.05	3189.97	4560.80
1.350	--undefined--	38.45	1392.84	2743.18	3193.59	4584.12
1.360	--undefined--	36.96	1395.41	2637.02	3190.95	4776.99
1.370	--undefined--	38.91	1396.32	2168.26	2780.85	3637.23
1.380	--undefined--	40.75	1395.43	2144.28	2723.67	3201.38
1.390	468.13	43.08	1397.61	2403.70	2732.55	3201.49
1.400	497.03	43.87	1402.87	2724.07	3198.14	4876.87
1.410	496.32	43.00	1404.06	2369.13	3269.85	4857.56
1.420	496.58	43.66	1408.40	3159.97	4414.66	4878.72
1.430	471.39	44.08	955.17	2721.54	3196.21	4373.54
1.440	471.03	41.64	2720.62	3160.95	3319.59	4656.96
1.450	533.37	41.36	2719.56	3201.10	3344.29	4836.88
1.460	533.29	42.07	2716.47	3202.86	3439.19	4689.95
1.470	532.06	41.05	1126.16	2878.50	3281.81	4551.32
1.480	529.54	40.87	440.43	2786.76	3210.17	4523.24
1.490	569.56	41.32	457.48	2714.46	3148.48	4554.23
1.500	567.87	41.68	1257.05	2723.18	3210.29	4555.37
1.510	--undefined--	40.43	1281.41	2481.37	3171.51	3776.34
1.520	--undefined--	38.70	1276.62	1815.19	3172.16	3598.59
1.530	--undefined--	37.63	1202.96	1807.49	3103.22	3208.66
1.540	--undefined--	36.46	1740.69	3029.66	3163.78	4420.77
1.550	--undefined--	38.80	791.19	2761.54	3193.17	4557.15
1.560	--undefined--	41.34	1276.71	2063.07	3143.87	3324.07
1.570	470.86	43.60	1271.46	2043.84	2859.11	4008.63
1.580	470.05	45.42	1083.45	2364.41	2809.46	3963.83
1.590	444.23	45.27	2406.51	2718.88	3152.84	4359.12
1.600	444.29	44.01	1728.01	2739.01	3199.26	4347.63
1.610	444.41	41.52	1280.04	3190.29	3455.94	4363.91
1.620	--undefined--	39.76	1279.13	3190.13	4279.39	4362.25
1.630	--undefined--	40.48	1272.16	2026.60	3195.19	4317.66
1.640	--undefined--	40.25	1270.15	2724.10	3206.60	4357.11
1.650	--undefined--	40.13	1276.89	2724.49	3200.03	4342.68
1.660	--undefined--	39.25	1267.08	2737.61	3200.37	4538.79
1.670	--undefined--	36.92	1317.70	2715.80	3152.07	4591.09
1.680	--undefined--	34.71	1397.54	2638.51	3550.50	4389.93
1.690	--undefined--	37.62	1399.97	3121.88	3672.71	4565.09
1.700	400.14	42.05	1341.35	2646.59	3426.84	4366.51
1.710	399.66	42.79	1298.86	1898.42	3200.54	4351.63
1.720	400.00	39.97	1236.61	1880.23	3200.19	4359.46
1.730	--undefined--	39.65	1878.99	3190.54	4048.31	4697.09
1.740	228.13	42.82	1877.07	3200.84	3521.07	3651.92
1.750	228.08	43.63	1853.39	2771.73	3210.98	4687.78
1.760	228.08	41.44	1699.37	2642.50	3151.90	4701.96
1.770	--undefined--	40.54	1390.40	1966.31	3040.96	4395.06
1.780	469.16	42.30	1820.33	1905.26	3204.59	4385.03
1.790	469.48	41.70	1406.22	1877.41	3338.57	4359.80
1.800	--undefined--	38.21	990.27	2266.15	3174.23	4245.51
1.810	--undefined--	35.44	2448.27	3148.58	3481.43	4310.55
1.820	--undefined--	38.61	171.18	2707.06	3193.36	4126.43
1.830	381.44	43.84	2709.40	3197.53	4148.92	4549.54
1.840	381.38	46.46	2216.53	3013.77	3266.93	4554.27
1.850	364.01	46.33	1405.08	2157.67	2897.51	3600.97
1.860	364.09	45.64	1404.50	2157.06	2299.27	3202.67
1.870	364.11	44.74	1572.22	2158.57	3004.89	4374.89
1.880	348.70	43.48	1653.70	2467.47	3233.11	4878.55
1.890	349.83	42.64	414.50	3149.25	3215.68	4854.48
1.900	350.90	41.70	2771.32	3197.44	3854.83	4747.55
1.910	350.48	41.91	1641.60	2706.55	3199.68	4349.82
1.920	350.18	42.63	1793.08	2678.82	3008.30	4313.32
1.930	350.41	42.24	1797.29	2428.61	2972.84	3640.31
1.940	--undefined--	40.99	1836.08	2578.53	3205.01	4379.12
1.950	528.84	41.65	1301.54	2873.52	3203.39	4361.39
1.960	528.10	41.13	1116.82	2729.44	3198.56	4376.27
1.970	527.02	41.73	2018.76	3021.06	4015.05	5083.54
1.980	527.36	42.74	2719.03	3156.46	4123.48	5313.08
1.990	529.39	41.84	2354.58	3081.94	3211.83	5310.50
2.000	--undefined--	40.38	2153.71	2471.73	3152.07	5311.45
2.010	--undefined--	38.34	1670.69	2266.73	3062.15	3961.49
2.020	--undefined--	35.23	1403.67	1822.47	2904.53	4074.20
2.030	--undefined--	34.09	1773.79	1849.56	3804.82	4557.01
2.040	--undefined--	34.45	1748.81	2631.03	4535.21	4653.23
2.050	--undefined--	36.69	1291.62	2722.68	3962.63	4563.09
2.060	--undefined--	38.69	1277.62	2724.27	2811.17	4468.66
2.070	--undefined--	38.56	1277.25	2714.74	3162.30	4560.93
2.080	--undefined--	40.71	1320.03	2578.54	3170.05	4502.10
2.090	469.19	45.18	1406.76	2655.86	3188.87	4405.56
2.100	469.29	47.68	1347.16	2716.12	3209.31	4483.79
2.110	469.49	47.44	466.82	2341.71	2729.66	4196.76
2.120	469.60	44.57	418.18	2720.98	2910.16	4363.92
2.130	--undefined--	40.72	2715.49	3197.11	4372.99	--undefined--
2.140	--undefined--	38.64	2717.74	3198.57	4397.74	4635.80
2.150	--undefined--	39.81	2717.92	3194.13	4404.97	4839.64
2.160	--undefined--	41.10	2728.73	3124.61	4496.24	4872.29
2.170	527.77	42.16	1543.24	2872.76	3597.11	4505.50
2.180	530.29	43.22	1441.41	2584.27	3076.45	3436.49
2.190	532.66	43.14	1795.98	2674.38	3159.76	4421.93
2.200	--undefined--	40.98	1803.96	2734.39	3231.37	4519.72
2.210	--undefined--	39.99	1876.93	2844.63	4330.12	4516.18
2.220	--undefined--	41.57	1223.94	2708.66	3207.87	4381.94
2.230	--undefined--	41.01	1399.22	2711.99	3181.72	4034.69
2.240	--undefined--	39.33	1396.06	2690.30	2761.56	3208.92
2.250	--undefined--	36.83	1397.56	2713.16	3168.07	3778.57
2.260	--undefined--	36.02	1539.96	2852.59	3482.32	4380.21
2.270	--undefined--	39.43	2714.06	3198.25	4376.22	4777.89
2.280	444.13	42.30	2716.94	3142.99	4291.16	4391.10
2.290	444.44	42.14	2712.18	2933.38	4083.39	4420.74
2.300	--undefined--	40.19	2713.84	2840.79	3214.03	4982.54
2.310	--undefined--	39.82	2396.75	2723.34	3196.68	4888.44
2.320	--undefined--	39.87	1278.03	2699.37	3196.66	4878.90
2.330	--undefined--	39.16	1290.29	2680.04	3199.51	4880.55
2.340	--undefined--	36.36	1813.10	2704.56	3201.38	4883.14
2.350	--undefined--	35.70	1345.77	1880.27	2844.20	3208.57
2.360	--undefined--	37.59	1277.17	1892.01	3185.10	3223.92
2.370	--undefined--	39.78	1253.38	2510.49	3165.86	4040.70
2.380	--undefined--	41.34	1231.68	2489.50	2793.29	3349.82
2.390	--undefined--	40.94	1333.21	2320.60	2864.65	4328.50
2.400	--undefined--	39.48	1528.13	2711.57	2841.44	4518.26
2.410	--undefined--	39.07	1257.51	2702.83	2776.44	4557.63
2.420	--undefined--	39.04	1276.98	2519.88	2719.77	4557.64
2.430	469.49	41.03	1261.56	2718.25	2896.04	4585.82
2.440	--undefined--	40.76	1203.12	2754.15	2905.22	4664.68
2.450	--undefined--	39.66	1197.53	2798.25	2964.43	4587.88
2.460	351.61	41.78	1196.91	2794.74	3019.69	4518.85
2.470	351.18	42.33	1176.25	2775.06	3165.81	4555.69
2.480	351.02	41.54	1771.95	2732.34	3200.35	4478.22
2.490	--undefined--	41.29	1798.27	2718.25	3198.62	4407.03
2.500	--undefined--	40.85	1797.03	2501.94	2919.26	4397.13
2.510	--undefined--	40.92	1801.30	2042.79	2720.71	4440.01
2.520	469.37	42.55	1862.60	2029.61	2744.52	4552.32
2.530	469.37	42.72	1806.61	2018.59	3118.86	4551.59
2.540	--undefined--	39.48	1795.11	2417.42	3194.35	4549.97
2.550	--undefined--	36.67	1792.32	2742.65	3207.39	4554.34
2.560	--undefined--	36.66	1812.34	2749.18	3000.86	4526.14
2.570	--undefined--	36.81	2487.33	2888.36	3483.08	4401.59
2.580	--undefined--	36.68	2711.97	2942.95	4405.49	4617.07
2.590	--undefined--	36.52	2717.92	2744.07	4549.43	4886.02
2.600	--undefined--	38.38	2709.40	2922.24	4441.17	4828.75
2.610	--undefined--	40.26	599.20	2663.68	2888.50	4394.53
2.620	399.64	40.97	1787.84	2753.27	2857.87	4394.79
2.630	399.78	41.56	1801.33	2733.09	3222.25	4414.87
2.640	531.87	42.92	2626.31	3148.63	3907.55	5220.55
2.650	531.70	42.86	214.18	2709.46	3176.39	4172.14
2.660	--undefined--	41.34	1102.00	2690.26	3117.68	4393.24
2.670	--undefined--	41.56	1744.31	2600.63	3165.42	4399.38
2.680	--undefined--	40.76	1445.69	2310.05	2947.65	4160.17
2.690	--undefined--	39.95	1315.83	1961.34	2737.05	3706.06
2.700	--undefined--	40.43	1375.30	2184.50	2948.71	3877.48
2.710	--undefined--	39.93	1081.19	2726.72	3188.46	4558.30
2.720	--undefined--	39.73	1192.38	3088.27	4053.88	4560.22
2.730	400.31	41.85	1113.98	3127.42	4093.21	5040.42
2.740	400.20	43.03	2603.58	3186.59	4279.14	5224.19
2.750	400.61	42.55	2672.56	2962.26	3792.86	4896.19
2.760	400.53	42.49	1090.20	2716.28	2800.90	3345.97
2.770	--undefined--	40.60	1250.85	2720.40	3061.63	4557.36
2.780	--undefined--	39.44	1271.29	2724.36	3205.21	4557.93
2.790	215.91	42.62	1276.76	2709.26	3210.57	4559.38
2.800	215.78	44.15	1206.93	1997.45	2958.94	3893.95
2.810	216.10	44.24	1278.70	2718.04	3196.16	4539.26
2.820	228.13	44.99	1198.37	2753.70	3196.65	4352.46
2.830	228.45	45.10	2299.56	3158.68	4002.51	4453.92
2.840	242.30	44.82	1309.31	2481.40	3192.69	4323.68
2.850	242.41	42.71	1396.30	2692.35	3199.88	4301.82
2.860	--undefined--	38.65	1405.58	2061.00	2752.20	4338.48
2.870	--undefined--	38.86	1683.26	2435.78	3104.72	4492.61
2.880	448.84	42.88	1797.71	2695.99	3227.38	3664.76
2.890	471.29	44.70	1793.32	2630.42	3170.67	3732.73
2.900	470.53	43.84	2260.49	3182.65	3991.52	4573.67
2.910	468.88	42.40	2706.35	2957.71	4328.03	4865.52
2.920	--undefined--	40.37	2354.30	2721.55	3514.67	4492.68
2.930	--undefined--	39.13	2206.80	2857.31	3255.93	4359.82
2.940	--undefined--	38.81	2202.00	3201.43	3646.98	4394.39
2.950	--undefined--	36.00	1420.49	3201.37	3692.38	4427.27
2.960	--undefined--	34.81	1400.65	1961.48	3121.45	3278.09
2.970	--undefined--	38.17	1401.16	2426.97	3071.03	4150.60
2.980	160.03	41.19	1152.74	2722.93	3206.18	4485.60
2.990	159.97	40.97	315.63	2714.81	3190.72	3961.56
3.000	--undefined--	38.23	1493.94	2768.58	3158.82	4360.61
3.010	--undefined--	37.84	2314.98	2753.31	3343.88	4891.27
3.020	350.96	40.48	1066.62	2812.67	3432.52	4921.85
3.030	350.97	39.64	713.86	2727.31	2928.52	4877.52
3.040	--undefined--	38.14	1820.97	2740.43	3107.72	5217.90
3.050	444.53	41.14	1612.52	1896.76	2724.74	4376.17
3.060	445.51	42.61	1715.07	2710.43	3698.62	4435.99
3.070	448.80	42.64	2092.02	2691.78	3872.57	4496.49
3.080	451.21	42.24	2014.61	2731.97	4010.00	4554.49
3.090	350.90	42.38	442.94	2717.67	2991.35	4195.10
3.100	351.45	44.13	442.77	2729.44	3203.28	4009.73
3.110	351.55	44.27	442.98	3075.19	3208.52	4359.36
3.120	351.02	44.65	444.76	3183.96	3224.21	4361.75
3.130	351.19	45.35	1942.11	3179.49	3232.75	4359.44
3.140	351.57	44.63	1309.77	1930.66	3205.45	3395.12
3.150	--undefined--	41.62	1277.05	1777.93	3203.56	3225.54
3.160	--undefined--	39.40	1278.64	1793.00	2634.31	3209.78
3.170	--undefined--	40.42	1280.85	2159.05	2931.56	3215.11
3.180	470.59	41.78	1219.42	2355.73	2946.59	3551.47
3.190	470.24	42.49	2535.00	2782.91	3203.67	4359.82
3.200	469.59	42.41	2712.23	3078.53	3355.72	4365.09
3.210	469.48	42.02	2627.72	3179.57	3378.19	4375.91
3.220	497.45	42.39	1887.37	2824.91	4361.11	4720.65
3.230	496.18	43.44	1885.29	2721.25	4390.17	4863.46
3.240	468.66	45.27	2635.63	2724.08	4420.01	--undefined--
3.250	469.20	45.21	2710.14	2832.73	3211.37	4405.00
3.260	--undefined--	41.68	1184.70	2728.83	3174.41	4387.79
3.270	--undefined--	37.88	1198.85	2720.63	3179.34	4452.97
3.280	--undefined--	36.73	1205.78	2393.38	3109.31	3840.83
3.290	--undefined--	36.72	1209.32	1874.43	2768.13	3309.75
3.300	--undefined--	35.19	1838.88	2020.24	2749.14	4678.77
3.310	--undefined--	35.73	1824.18	2810.61	4545.70	--undefined--
3.320	--undefined--	37.35	2514.15	2858.67	3244.26	5205.17
3.330	--undefined--	39.28	1893.67	3168.79	3222.90	5312.84
3.340	277.58	42.74	2034.19	2584.27	3204.98	4483.10
3.350	295.43	43.77	2036.26	2494.39	3831.35	4484.64
3.360	295.99	41.70	2035.91	2717.70	4413.44	4532.40
3.370	349.46	40.08	2481.30	3056.59	4500.80	4670.90
3.380	349.83	40.59	3009.54	3200.03	4545.73	4562.98
3.390	--undefined--	38.87	3135.01	3206.54	4541.48	4577.64
3.400	--undefined--	39.95	1814.62	3204.95	4013.86	4559.40
3.410	570.74	42.31	1377.72	3156.92	3625.88	4559.92
3.420	--undefined--	41.59	1291.23	2798.93	4552.35	4568.40
3.430	--undefined--	38.41	1304.06	2801.22	4333.58	4560.56
3.440	--undefined--	35.41	2673.89	3161.26	4352.58	4553.64
3.450	--undefined--	37.18	2830.10	3142.70	3252.89	4444.16
3.460	--undefined--	38.84	2742.95	3138.74	3191.31	4438.19
3.470	--undefined--	38.36	1801.85	3138.76	3200.09	4558.88
3.480	--undefined--	37.14	1592.42	3169.94	3253.19	4506.15
3.490	--undefined--	37.31	1703.46	3207.15	3343.28	4388.93
3.500	--undefined--	37.86	1944.89	3148.00	3208.23	4394.58
3.510	--undefined--	36.32	1540.92	2912.68	3213.55	4362.54
3.520	--undefined--	36.62	1281.30	2583.13	3203.51	4334.60
3.530	--undefined--	37.75	1279.83	1856.00	2841.54	3220.26
3.540	--undefined--	39.38	1400.86	2220.35	2773.07	3191.16
3.550	--undefined--	41.41	511.15	2344.22	3158.54	4198.59
3.560	444.00	43.02	1158.43	2893.15	3209.60	4348.68
3.570	444.23	41.92	1184.48	2721.21	3201.99	4326.98
3.580	--undefined--	41.47	1631.60	2707.95	3191.62	4357.89
3.590	445.70	45.52	2677.36	2730.03	3244.78	4359.26
3.600	445.57	47.37	2581.45	2722.86	3198.36	4374.04
3.610	445.20	45.31	1795.27	2680.87	3150.58	3271.73
3.620	--undefined--	41.79	1794.14	1985.93	2728.17	3205.02
